EESC time series (in pptv) for different ages of air
Age of air spectrum width is half the age of air
Fractional release type is "WMO_2010", using inorganic chlorine and a bromine scaling factor of 60
               1.0       2.0       3.0       4.0       5.0       6.0
  1950.0   129.308   313.355   490.084   653.711   809.927   906.446
  1950.1   129.498   313.820   490.832   654.714   811.128   907.684
  1950.2   129.689   314.285   491.582   655.720   812.335   908.929
  1950.3   129.879   314.750   492.334   656.729   813.547   910.181
  1950.4   130.070   315.216   493.086   657.741   814.764   911.440
  1950.5   130.260   315.682   493.840   658.756   815.985   912.706
  1950.6   130.451   316.149   494.595   659.773   817.212   913.978
  1950.7   130.641   316.615   495.351   660.793   818.443   915.257
  1950.8   130.832   317.082   496.108   661.816   819.679   916.543
  1950.9   131.022   317.549   496.866   662.841   820.919   917.835
  1951.0   131.213   318.017   497.625   663.869   822.164   919.132
  1951.1   131.403   318.484   498.385   664.898   823.412   920.436
  1951.2   131.594   318.952   499.146   665.930   824.665   921.746
  1951.3   131.784   319.419   499.908   666.964   825.922   923.061
  1951.4   131.974   319.887   500.670   668.000   827.182   924.382
  1951.5   132.163   320.355   501.433   669.038   828.446   925.707
  1951.6   132.352   320.823   502.197   670.078   829.713   927.039
  1951.7   132.539   321.290   502.961   671.119   830.984   928.375
  1951.8   132.726   321.758   503.726   672.163   832.258   929.717
  1951.9   132.913   322.224   504.491   673.208   833.536   931.063
  1952.0   133.099   322.691   505.257   674.254   834.816   932.414
  1952.1   133.284   323.157   506.023   675.302   836.100   933.770
  1952.2   133.469   323.623   506.788   676.351   837.388   935.130
  1952.3   133.654   324.088   507.554   677.402   838.678   936.496
  1952.4   133.839   324.553   508.320   678.454   839.971   937.867
  1952.5   134.023   325.017   509.086   679.507   841.268   939.242
  1952.6   134.207   325.482   509.852   680.562   842.568   940.623
  1952.7   134.391   325.945   510.618   681.618   843.871   942.008
  1952.8   134.575   326.409   511.383   682.674   845.177   943.398
  1952.9   134.758   326.872   512.149   683.732   846.486   944.794
  1953.0   134.942   327.335   512.915   684.791   847.797   946.194
  1953.1   135.125   327.798   513.681   685.851   849.112   947.599
  1953.2   135.308   328.261   514.446   686.912   850.430   949.009
  1953.3   135.492   328.723   515.212   687.973   851.750   950.425
  1953.4   135.675   329.185   515.977   689.036   853.073   951.845
  1953.5   135.858   329.647   516.743   690.099   854.399   953.270
  1953.6   136.041   330.109   517.508   691.163   855.728   954.700
  1953.7   136.224   330.571   518.273   692.228   857.059   956.135
  1953.8   136.407   331.032   519.039   693.294   858.393   957.575
  1953.9   136.590   331.494   519.804   694.360   859.729   959.019
  1954.0   136.773   331.955   520.569   695.427   861.067   960.468
  1954.1   136.956   332.416   521.334   696.495   862.408   961.921
  1954.2   137.139   332.877   522.099   697.563   863.751   963.380
  1954.3   137.322   333.338   522.864   698.632   865.097   964.842
  1954.4   137.505   333.799   523.629   699.701   866.444   966.309
  1954.5   137.688   334.260   524.394   700.771   867.794   967.780
  1954.6   137.871   334.721   525.159   701.842   869.146   969.255
  1954.7   138.054   335.182   525.924   702.913   870.499   970.734
  1954.8   138.237   335.642   526.689   703.985   871.855   972.218
  1954.9   138.420   336.103   527.453   705.057   873.213   973.705
  1955.0   138.602   336.564   528.218   706.130   874.572   975.196
  1955.1   138.785   337.024   528.983   707.203   875.933   976.691
  1955.2   138.968   337.485   529.748   708.276   877.296   978.190
  1955.3   139.154   337.945   530.513   709.350   878.661   979.692
  1955.4   139.345   338.406   531.277   710.425   880.027   981.198
  1955.5   139.545   338.870   532.043   711.500   881.395   982.707
  1955.6   139.754   339.340   532.810   712.575   882.765   984.220
  1955.7   139.972   339.817   533.580   713.653   884.136   985.736
  1955.8   140.198   340.303   534.355   714.732   885.509   987.255
  1955.9   140.431   340.799   535.137   715.816   886.886   988.779
  1956.0   140.670   341.307   535.928   716.905   888.267   990.306
  1956.1   140.914   341.824   536.728   718.000   889.652   991.839
  1956.2   141.163   342.353   537.539   719.105   891.045   993.377
  1956.3   141.415   342.892   538.362   720.218   892.445   994.922
  1956.4   141.671   343.441   539.196   721.342   893.853   996.474
  1956.5   141.930   344.000   540.042   722.478   895.272   998.035
  1956.6   142.191   344.568   540.901   723.626   896.702   999.606
  1956.7   142.454   345.144   541.772   724.787   898.144  1001.187
  1956.8   142.719   345.728   542.654   725.961   899.598  1002.780
  1956.9   142.986   346.319   543.549   727.148   901.067  1004.385
  1957.0   143.254   346.917   544.455   728.349   902.549  1006.003
  1957.1   143.523   347.521   545.372   729.563   904.046  1007.635
  1957.2   143.793   348.132   546.299   730.791   905.557  1009.281
  1957.3   144.064   348.747   547.237   732.032   907.083  1010.942
  1957.4   144.335   349.368   548.185   733.286   908.625  1012.618
  1957.5   144.608   349.994   549.142   734.554   910.181  1014.309
  1957.6   144.880   350.623   550.108   735.834   911.753  1016.017
  1957.7   145.154   351.257   551.083   737.127   913.340  1017.740
  1957.8   145.427   351.895   552.066   738.432   914.942  1019.478
  1957.9   145.701   352.536   553.057   739.748   916.559  1021.233
  1958.0   145.976   353.180   554.056   741.076   918.191  1023.004
  1958.1   146.250   353.827   555.061   742.416   919.838  1024.791
  1958.2   146.525   354.476   556.074   743.766   921.498  1026.594
  1958.3   146.800   355.128   557.093   745.127   923.173  1028.413
  1958.4   147.075   355.783   558.117   746.497   924.861  1030.248
  1958.5   147.351   356.439   559.148   747.878   926.563  1032.098
  1958.6   147.626   357.098   560.184   749.268   928.278  1033.964
  1958.7   147.902   357.758   561.226   750.667   930.006  1035.845
  1958.8   148.177   358.420   562.272   752.075   931.747  1037.740
  1958.9   148.453   359.084   563.323   753.492   933.499  1039.651
  1959.0   148.729   359.749   564.379   754.916   935.264  1041.577
  1959.1   149.005   360.416   565.439   756.349   937.041  1043.516
  1959.2   149.281   361.084   566.502   757.789   938.829  1045.470
  1959.3   149.557   361.753   567.570   759.237   940.628  1047.437
  1959.4   149.833   362.423   568.641   760.691   942.437  1049.418
  1959.5   150.109   363.094   569.716   762.152   944.257  1051.412
  1959.6   150.385   363.766   570.794   763.620   946.088  1053.419
  1959.7   150.662   364.439   571.875   765.094   947.928  1055.439
  1959.8   150.938   365.112   572.960   766.574   949.778  1057.471
  1959.9   151.214   365.787   574.047   768.060   951.637  1059.516
  1960.0   151.491   366.462   575.136   769.552   953.505  1061.572
  1960.1   151.767   367.138   576.228   771.049   955.382  1063.640
  1960.2   152.043   367.814   577.323   772.551   957.267  1065.720
  1960.3   152.323   368.491   578.420   774.058   959.161  1067.810
  1960.4   152.610   369.170   579.519   775.570   961.063  1069.912
  1960.5   152.908   369.853   580.621   777.086   962.973  1072.024
  1960.6   153.218   370.544   581.727   778.608   964.890  1074.146
  1960.7   153.539   371.246   582.840   780.135   966.815  1076.279
  1960.8   153.870   371.961   583.962   781.670   968.748  1078.421
  1960.9   154.210   372.691   585.095   783.214   970.691  1080.575
  1961.0   154.558   373.435   586.241   784.768   972.644  1082.739
  1961.1   154.913   374.195   587.404   786.337   974.610  1084.916
  1961.2   155.273   374.970   588.582   787.920   976.589  1087.106
  1961.3   155.638   375.760   589.779   789.520   978.584  1089.310
  1961.4   156.008   376.564   590.994   791.138   980.597  1091.531
  1961.5   156.381   377.381   592.227   792.776   982.629  1093.768
  1961.6   156.757   378.211   593.478   794.435   984.681  1096.025
  1961.7   157.136   379.052   594.748   796.114   986.755  1098.302
  1961.8   157.517   379.905   596.036   797.815   988.851  1100.600
  1961.9   157.900   380.768   597.342   799.538   990.972  1102.922
  1962.0   158.285   381.641   598.665   801.283   993.117  1105.267
  1962.1   158.671   382.523   600.005   803.050   995.287  1107.636
  1962.2   159.058   383.413   601.361   804.838   997.482  1110.031
  1962.3   159.447   384.310   602.732   806.649   999.703  1112.452
  1962.4   159.836   385.215   604.118   808.480  1001.950  1114.900
  1962.5   160.227   386.126   605.519   810.332  1004.222  1117.375
  1962.6   160.618   387.043   606.932   812.205  1006.521  1119.877
  1962.7   161.009   387.966   608.359   814.098  1008.844  1122.406
  1962.8   161.401   388.894   609.798   816.009  1011.193  1124.963
  1962.9   161.794   389.827   611.249   817.940  1013.567  1127.548
  1963.0   162.187   390.765   612.712   819.889  1015.965  1130.161
  1963.1   162.580   391.706   614.185   821.856  1018.388  1132.800
  1963.2   162.974   392.651   615.668   823.840  1020.835  1135.467
  1963.3   163.367   393.600   617.161   825.841  1023.305  1138.161
  1963.4   163.761   394.552   618.662   827.858  1025.797  1140.882
  1963.5   164.156   395.508   620.173   829.890  1028.313  1143.630
  1963.6   164.550   396.465   621.692   831.938  1030.850  1146.404
  1963.7   164.945   397.426   623.219   834.000  1033.408  1149.203
  1963.8   165.339   398.389   624.753   836.076  1035.988  1152.028
  1963.9   165.734   399.354   626.295   838.165  1038.588  1154.878
  1964.0   166.129   400.321   627.843   840.268  1041.207  1157.753
  1964.1   166.524   401.290   629.397   842.383  1043.846  1160.652
  1964.2   166.919   402.261   630.958   844.510  1046.504  1163.574
  1964.3   167.314   403.234   632.524   846.648  1049.179  1166.520
  1964.4   167.709   404.208   634.096   848.798  1051.873  1169.488
  1964.5   168.105   405.184   635.673   850.959  1054.584  1172.479
  1964.6   168.500   406.160   637.255   853.130  1057.312  1175.492
  1964.7   168.895   407.139   638.842   855.311  1060.056  1178.526
  1964.8   169.291   408.118   640.433   857.501  1062.816  1181.582
  1964.9   169.686   409.098   642.029   859.701  1065.591  1184.657
  1965.0   170.082   410.079   643.628   861.910  1068.382  1187.753
  1965.1   170.477   411.062   645.232   864.127  1071.186  1190.869
  1965.2   170.873   412.045   646.839   866.352  1074.005  1194.003
  1965.3   171.275   413.029   648.449   868.585  1076.838  1197.156
  1965.4   171.693   414.016   650.063   870.826  1079.683  1200.327
  1965.5   172.134   415.012   651.681   873.075  1082.542  1203.517
  1965.6   172.598   416.025   653.307   875.331  1085.413  1206.723
  1965.7   173.086   417.059   654.945   877.598  1088.298  1209.947
  1965.8   173.594   418.120   656.601   879.877  1091.196  1213.188
  1965.9   174.120   419.210   658.278   882.172  1094.110  1216.447
  1966.0   174.663   420.331   659.981   884.488  1097.043  1219.725
  1966.1   175.219   421.484   661.715   886.827  1099.997  1223.025
  1966.2   175.788   422.668   663.481   889.196  1102.977  1226.347
  1966.3   176.366   423.882   665.282   891.596  1105.985  1229.695
  1966.4   176.954   425.125   667.118   894.030  1109.025  1233.072
  1966.5   177.548   426.396   668.991   896.500  1112.099  1236.480
  1966.6   178.150   427.692   670.900   899.010  1115.211  1239.922
  1966.7   178.756   429.013   672.845   901.559  1118.364  1243.401
  1966.8   179.367   430.356   674.826   904.150  1121.559  1246.919
  1966.9   179.983   431.720   676.841   906.782  1124.798  1250.479
  1967.0   180.602   433.105   678.891   909.455  1128.082  1254.082
  1967.1   181.223   434.507   680.973   912.171  1131.413  1257.731
  1967.2   181.848   435.927   683.086   914.927  1134.790  1261.426
  1967.3   182.474   437.362   685.231   917.725  1138.216  1265.170
  1967.4   183.103   438.812   687.404   920.564  1141.690  1268.963
  1967.5   183.733   440.275   689.605   923.442  1145.212  1272.806
  1967.6   184.364   441.750   691.833   926.358  1148.781  1276.699
  1967.7   184.997   443.238   694.087   929.313  1152.399  1280.644
  1967.8   185.631   444.735   696.365   932.305  1156.063  1284.640
  1967.9   186.265   446.243   698.666   935.333  1159.775  1288.687
  1968.0   186.901   447.760   700.990   938.395  1163.532  1292.786
  1968.1   187.537   449.285   703.334   941.492  1167.335  1296.935
  1968.2   188.174   450.818   705.699   944.621  1171.183  1301.135
  1968.3   188.812   452.359   708.082   947.783  1175.074  1305.386
  1968.4   189.449   453.906   710.484   950.975  1179.008  1309.687
  1968.5   190.088   455.459   712.902   954.196  1182.984  1314.037
  1968.6   190.726   457.018   715.337   957.446  1187.001  1318.436
  1968.7   191.365   458.582   717.788   960.724  1191.059  1322.883
  1968.8   192.004   460.151   720.253   964.029  1195.155  1327.378
  1968.9   192.644   461.725   722.733   967.360  1199.290  1331.919
  1969.0   193.284   463.303   725.225   970.715  1203.461  1336.506
  1969.1   193.923   464.885   727.730   974.094  1207.669  1341.138
  1969.2   194.563   466.470   730.247   977.496  1211.912  1345.815
  1969.3   195.204   468.059   732.776   980.921  1216.190  1350.535
  1969.4   195.844   469.652   735.315   984.366  1220.501  1355.297
  1969.5   196.484   471.247   737.864   987.833  1224.844  1360.102
  1969.6   197.125   472.844   740.424   991.318  1229.219  1364.947
  1969.7   197.765   474.445   742.992   994.823  1233.624  1369.832
  1969.8   198.406   476.047   745.569   998.347  1238.059  1374.756
  1969.9   199.047   477.652   748.155  1001.888  1242.523  1379.719
  1970.0   199.687   479.259   750.748  1005.445  1247.015  1384.719
  1970.1   200.328   480.868   753.349  1009.020  1251.534  1389.755
  1970.2   200.969   482.478   755.957  1012.609  1256.080  1394.827
  1970.3   201.620   484.091   758.572  1016.214  1260.651  1399.935
  1970.4   202.295   485.708   761.194  1019.833  1265.247  1405.076
  1970.5   203.003   487.340   763.824  1023.467  1269.867  1410.250
  1970.6   203.747   488.995   766.467  1027.116  1274.511  1415.458
  1970.7   204.524   490.683   769.129  1030.782  1279.179  1420.697
  1970.8   205.333   492.412   771.818  1034.470  1283.872  1425.968
  1970.9   206.169   494.185   774.540  1038.184  1288.593  1431.272
  1971.0   207.030   496.004   777.304  1041.932  1293.346  1436.610
  1971.1   207.910   497.870   780.112  1045.717  1298.135  1441.985
  1971.2   208.809   499.783   782.971  1049.547  1302.965  1447.400
  1971.3   209.723   501.741   785.881  1053.426  1307.841  1452.859
  1971.4   210.650   503.742   788.846  1057.358  1312.768  1458.365
  1971.5   211.588   505.784   791.865  1061.346  1317.749  1463.922
  1971.6   212.535   507.865   794.940  1065.394  1322.790  1469.534
  1971.7   213.491   509.982   798.069  1069.503  1327.894  1475.206
  1971.8   214.453   512.134   801.251  1073.674  1333.063  1480.940
  1971.9   215.422   514.317   804.487  1077.909  1338.300  1486.740
  1972.0   216.396   516.529   807.773  1082.207  1343.607  1492.608
  1972.1   217.374   518.769   811.109  1086.569  1348.986  1498.548
  1972.2   218.356   521.034   814.492  1090.993  1354.437  1504.560
  1972.3   219.341   523.322   817.921  1095.480  1359.961  1510.647
  1972.4   220.329   525.633   821.394  1100.029  1365.559  1516.810
  1972.5   221.320   527.963   824.910  1104.637  1371.230  1523.050
  1972.6   222.312   530.312   828.465  1109.304  1376.974  1529.369
  1972.7   223.307   532.679   832.060  1114.029  1382.791  1535.766
  1972.8   224.303   535.061   835.691  1118.810  1388.680  1542.242
  1972.9   225.301   537.458   839.357  1123.646  1394.641  1548.796
  1973.0   226.299   539.869   843.056  1128.534  1400.671  1555.429
  1973.1   227.299   542.292   846.787  1133.474  1406.770  1562.140
  1973.2   228.300   544.727   850.548  1138.464  1412.937  1568.929
  1973.3   229.301   547.173   854.338  1143.501  1419.170  1575.795
  1973.4   230.303   549.629   858.155  1148.586  1425.469  1582.737
  1973.5   231.306   552.094   861.998  1153.715  1431.831  1589.755
  1973.6   232.309   554.568   865.865  1158.887  1438.256  1596.847
  1973.7   233.313   557.050   869.756  1164.102  1444.741  1604.011
  1973.8   234.317   559.539   873.669  1169.357  1451.286  1611.249
  1973.9   235.322   562.035   877.604  1174.651  1457.889  1618.557
  1974.0   236.327   564.537   881.558  1179.982  1464.549  1625.935
  1974.1   237.332   567.045   885.531  1185.350  1471.262  1633.382
  1974.2   238.337   569.559   889.522  1190.753  1478.030  1640.896
  1974.3   239.343   572.078   893.531  1196.189  1484.849  1648.476
  1974.4   240.349   574.601   897.556  1201.657  1491.720  1656.122
  1974.5   241.354   577.129   901.596  1207.156  1498.639  1663.830
  1974.6   242.361   579.661   905.650  1212.686  1505.606  1671.600
  1974.7   243.367   582.197   909.719  1218.244  1512.619  1679.431
  1974.8   244.373   584.736   913.801  1223.830  1519.678  1687.322
  1974.9   245.379   587.279   917.896  1229.443  1526.780  1695.270
  1975.0   246.386   589.824   922.002  1235.081  1533.925  1703.276
  1975.1   247.392   592.372   926.120  1240.744  1541.111  1711.337
  1975.2   248.399   594.923   930.249  1246.430  1548.337  1719.452
  1975.3   249.413   597.477   934.388  1252.140  1555.601  1727.620
  1975.4   250.446   600.036   938.537  1257.872  1562.904  1735.839
  1975.5   251.505   602.605   942.696  1263.624  1570.243  1744.110
  1975.6   252.591   605.192   946.869  1269.398  1577.617  1752.430
  1975.7   253.703   607.803   951.059  1275.195  1585.027  1760.798
  1975.8   254.839   610.443   955.271  1281.015  1592.472  1769.213
  1975.9   255.996   613.114   959.508  1286.862  1599.952  1777.676
  1976.0   257.172   615.819   963.775  1292.740  1607.470  1786.185
  1976.1   258.363   618.557   968.075  1298.649  1615.027  1794.743
  1976.2   259.568   621.329   972.410  1304.594  1622.625  1803.349
  1976.3   260.785   624.132   976.783  1310.578  1630.266  1812.005
  1976.4   262.012   626.967   981.192  1316.601  1637.952  1820.711
  1976.5   263.248   629.830   985.640  1322.666  1645.685  1829.471
  1976.6   264.491   632.721   990.126  1328.774  1653.466  1838.283
  1976.7   265.740   635.638   994.650  1334.926  1661.297  1847.152
  1976.8   266.994   638.579   999.210  1341.121  1669.179  1856.076
  1976.9   268.253   641.543  1003.807  1347.362  1677.112  1865.057
  1977.0   269.516   644.527  1008.438  1353.646  1685.098  1874.097
  1977.1   270.783   647.531  1013.103  1359.974  1693.136  1883.195
  1977.2   272.052   650.553  1017.801  1366.346  1701.227  1892.353
  1977.3   273.324   653.592  1022.530  1372.761  1709.371  1901.570
  1977.4   274.598   656.646  1027.289  1379.217  1717.567  1910.847
  1977.5   275.874   659.714  1032.077  1385.715  1725.815  1920.184
  1977.6   277.152   662.796  1036.892  1392.252  1734.115  1929.580
  1977.7   278.431   665.890  1041.734  1398.829  1742.465  1939.036
  1977.8   279.712   668.996  1046.601  1405.443  1750.865  1948.551
  1977.9   280.993   672.112  1051.491  1412.095  1759.315  1958.124
  1978.0   282.275   675.237  1056.405  1418.782  1767.813  1967.756
